Nov. 16, 2023   21:20:50
Linear Sweep Voltammetry
File: /home/mkq/documents/data/4/data460\lsv-1.bin
Data Source:  Experiment
Instrument Model:  CHI760E
Header: 
Note: 

Init E (V) = 0
Final E (V) = 0.8
Scan Rate (V/s) = 0.005
Sample Interval (V) = 0.001
Quiet Time (sec) = 2
Sensitivity (A/V) = 0.1

Results:

Channel 1:

Potential/V, Current/A

0.000, -3.961e-4
0.001, -3.789e-4
0.002, -3.674e-4
0.003, -3.505e-4
0.004, -3.396e-4
0.005, -3.280e-4
0.006, -3.173e-4
0.007, -3.064e-4
0.008, -2.971e-4
0.009, -2.919e-4
0.010, -2.864e-4
0.011, -2.791e-4
0.012, -2.731e-4
0.013, -2.680e-4
0.014, -2.612e-4
0.015, -2.551e-4
0.016, -2.507e-4
0.017, -2.442e-4
0.018, -2.380e-4
0.019, -2.357e-4
0.020, -2.325e-4
0.021, -2.249e-4
0.022, -2.179e-4
0.023, -2.169e-4
0.024, -2.142e-4
0.025, -2.097e-4
0.026, -2.060e-4
0.027, -2.018e-4
0.028, -1.977e-4
0.029, -1.938e-4
0.030, -1.921e-4
0.031, -1.868e-4
0.032, -1.837e-4
0.033, -1.812e-4
0.034, -1.770e-4
0.035, -1.756e-4
0.036, -1.737e-4
0.037, -1.744e-4
0.038, -1.707e-4
0.039, -1.685e-4
0.040, -1.630e-4
0.041, -1.574e-4
0.042, -1.559e-4
0.043, -1.526e-4
0.044, -1.501e-4
0.045, -1.485e-4
0.046, -1.441e-4
0.047, -1.453e-4
0.048, -1.447e-4
0.049, -1.425e-4
0.050, -1.397e-4
0.051, -1.398e-4
0.052, -1.373e-4
0.053, -1.332e-4
0.054, -1.299e-4
0.055, -1.284e-4
0.056, -1.277e-4
0.057, -1.243e-4
0.058, -1.172e-4
0.059, -1.153e-4
0.060, -1.184e-4
0.061, -1.165e-4
0.062, -1.143e-4
0.063, -1.102e-4
0.064, -1.095e-4
0.065, -1.090e-4
0.066, -1.063e-4
0.067, -1.039e-4
0.068, -1.003e-4
0.069, -1.009e-4
0.070, -9.574e-5
0.071, -9.448e-5
0.072, -9.141e-5
0.073, -9.133e-5
0.074, -8.888e-5
0.075, -8.589e-5
0.076, -8.179e-5
0.077, -8.179e-5
0.078, -8.360e-5
0.079, -8.148e-5
0.080, -7.706e-5
0.081, -7.667e-5
0.082, -7.628e-5
0.083, -7.368e-5
0.084, -7.115e-5
0.085, -7.005e-5
0.086, -6.871e-5
0.087, -6.517e-5
0.088, -6.343e-5
0.089, -6.383e-5
0.090, -6.178e-5
0.091, -6.130e-5
0.092, -5.823e-5
0.093, -5.508e-5
0.094, -5.571e-5
0.095, -5.303e-5
0.096, -4.917e-5
0.097, -4.893e-5
0.098, -4.767e-5
0.099, -4.618e-5
0.100, -4.216e-5
0.101, -4.176e-5
0.102, -4.011e-5
0.103, -3.837e-5
0.104, -3.633e-5
0.105, -3.475e-5
0.106, -3.522e-5
0.107, -3.286e-5
0.108, -3.365e-5
0.109, -3.057e-5
0.110, -2.592e-5
0.111, -2.766e-5
0.112, -2.679e-5
0.113, -2.435e-5
0.114, -2.072e-5
0.115, -1.899e-5
0.116, -1.671e-5
0.117, -1.663e-5
0.118, -1.198e-5
0.119, -9.456e-6
0.120, -8.037e-6
0.121, -1.103e-5
0.122, -8.904e-6
0.123, -7.092e-6
0.124, -6.698e-6
0.125, -3.546e-6
0.126, -1.103e-6
0.127, 1.970e-6
0.128, 5.595e-6
0.129, 5.595e-6
0.130, 7.722e-6
0.131, 6.619e-6
0.132, 8.353e-6
0.133, 1.158e-5
0.134, 1.261e-5
0.135, 1.332e-5
0.136, 1.655e-5
0.137, 1.820e-5
0.138, 1.875e-5
0.139, 2.246e-5
0.140, 2.427e-5
0.141, 2.648e-5
0.142, 2.805e-5
0.143, 2.829e-5
0.144, 2.931e-5
0.145, 3.317e-5
0.146, 3.278e-5
0.147, 3.396e-5
0.148, 3.924e-5
0.149, 4.184e-5
0.150, 4.365e-5
0.151, 4.436e-5
0.152, 4.484e-5
0.153, 4.720e-5
0.154, 5.082e-5
0.155, 5.153e-5
0.156, 5.327e-5
0.157, 5.484e-5
0.158, 5.524e-5
0.159, 6.107e-5
0.160, 6.123e-5
0.161, 6.501e-5
0.162, 6.485e-5
0.163, 6.540e-5
0.164, 6.848e-5
0.165, 7.013e-5
0.166, 7.139e-5
0.167, 7.415e-5
0.168, 7.525e-5
0.169, 7.840e-5
0.170, 7.959e-5
0.171, 8.100e-5
0.172, 8.156e-5
0.173, 8.518e-5
0.174, 8.581e-5
0.175, 8.951e-5
0.176, 9.282e-5
0.177, 9.211e-5
0.178, 9.432e-5
0.179, 9.621e-5
0.180, 9.582e-5
0.181, 9.779e-5
0.182, 1.012e-4
0.183, 1.024e-4
0.184, 1.048e-4
0.185, 1.081e-4
0.186, 1.118e-4
0.187, 1.138e-4
0.188, 1.181e-4
0.189, 1.193e-4
0.190, 1.196e-4
0.191, 1.234e-4
0.192, 1.270e-4
0.193, 1.284e-4
0.194, 1.287e-4
0.195, 1.300e-4
0.196, 1.313e-4
0.197, 1.337e-4
0.198, 1.360e-4
0.199, 1.377e-4
0.200, 1.396e-4
0.201, 1.419e-4
0.202, 1.406e-4
0.203, 1.431e-4
0.204, 1.454e-4
0.205, 1.486e-4
0.206, 1.514e-4
0.207, 1.527e-4
0.208, 1.549e-4
0.209, 1.568e-4
0.210, 1.593e-4
0.211, 1.615e-4
0.212, 1.629e-4
0.213, 1.636e-4
0.214, 1.667e-4
0.215, 1.703e-4
0.216, 1.719e-4
0.217, 1.751e-4
0.218, 1.775e-4
0.219, 1.789e-4
0.220, 1.837e-4
0.221, 1.864e-4
0.222, 1.874e-4
0.223, 1.913e-4
0.224, 1.918e-4
0.225, 1.920e-4
0.226, 1.977e-4
0.227, 2.006e-4
0.228, 2.019e-4
0.229, 2.076e-4
0.230, 2.106e-4
0.231, 2.117e-4
0.232, 2.142e-4
0.233, 2.177e-4
0.234, 2.207e-4
0.235, 2.224e-4
0.236, 2.202e-4
0.237, 2.255e-4
0.238, 2.298e-4
0.239, 2.312e-4
0.240, 2.350e-4
0.241, 2.393e-4
0.242, 2.424e-4
0.243, 2.465e-4
0.244, 2.475e-4
0.245, 2.493e-4
0.246, 2.530e-4
0.247, 2.568e-4
0.248, 2.566e-4
0.249, 2.603e-4
0.250, 2.650e-4
0.251, 2.663e-4
0.252, 2.725e-4
0.253, 2.738e-4
0.254, 2.741e-4
0.255, 2.773e-4
0.256, 2.804e-4
0.257, 2.845e-4
0.258, 2.891e-4
0.259, 2.935e-4
0.260, 2.957e-4
0.261, 2.987e-4
0.262, 3.023e-4
0.263, 3.054e-4
0.264, 3.090e-4
0.265, 3.114e-4
0.266, 3.152e-4
0.267, 3.185e-4
0.268, 3.237e-4
0.269, 3.279e-4
0.270, 3.287e-4
0.271, 3.331e-4
0.272, 3.373e-4
0.273, 3.413e-4
0.274, 3.443e-4
0.275, 3.496e-4
0.276, 3.529e-4
0.277, 3.549e-4
0.278, 3.596e-4
0.279, 3.639e-4
0.280, 3.685e-4
0.281, 3.730e-4
0.282, 3.774e-4
0.283, 3.782e-4
0.284, 3.840e-4
0.285, 3.875e-4
0.286, 3.933e-4
0.287, 3.990e-4
0.288, 4.047e-4
0.289, 4.075e-4
0.290, 4.119e-4
0.291, 4.168e-4
0.292, 4.220e-4
0.293, 4.262e-4
0.294, 4.317e-4
0.295, 4.375e-4
0.296, 4.414e-4
0.297, 4.470e-4
0.298, 4.529e-4
0.299, 4.586e-4
0.300, 4.625e-4
0.301, 4.643e-4
0.302, 4.707e-4
0.303, 4.760e-4
0.304, 4.808e-4
0.305, 4.899e-4
0.306, 4.935e-4
0.307, 4.987e-4
0.308, 5.053e-4
0.309, 5.085e-4
0.310, 5.163e-4
0.311, 5.215e-4
0.312, 5.279e-4
0.313, 5.331e-4
0.314, 5.380e-4
0.315, 5.455e-4
0.316, 5.502e-4
0.317, 5.564e-4
0.318, 5.615e-4
0.319, 5.704e-4
0.320, 5.792e-4
0.321, 5.835e-4
0.322, 5.882e-4
0.323, 5.945e-4
0.324, 5.997e-4
0.325, 6.086e-4
0.326, 6.161e-4
0.327, 6.199e-4
0.328, 6.262e-4
0.329, 6.290e-4
0.330, 6.357e-4
0.331, 6.412e-4
0.332, 6.502e-4
0.333, 6.553e-4
0.334, 6.631e-4
0.335, 6.711e-4
0.336, 6.774e-4
0.337, 6.859e-4
0.338, 6.926e-4
0.339, 6.980e-4
0.340, 7.068e-4
0.341, 7.140e-4
0.342, 7.205e-4
0.343, 7.301e-4
0.344, 7.356e-4
0.345, 7.459e-4
0.346, 7.548e-4
0.347, 7.595e-4
0.348, 7.669e-4
0.349, 7.757e-4
0.350, 7.851e-4
0.351, 7.929e-4
0.352, 8.000e-4
0.353, 8.104e-4
0.354, 8.182e-4
0.355, 8.248e-4
0.356, 8.364e-4
0.357, 8.426e-4
0.358, 8.526e-4
0.359, 8.603e-4
0.360, 8.688e-4
0.361, 8.803e-4
0.362, 8.865e-4
0.363, 8.953e-4
0.364, 9.067e-4
0.365, 9.155e-4
0.366, 9.230e-4
0.367, 9.314e-4
0.368, 9.411e-4
0.369, 9.510e-4
0.370, 9.629e-4
0.371, 9.773e-4
0.372, 9.868e-4
0.373, 9.955e-4
0.374, 1.005e-3
0.375, 1.017e-3
0.376, 1.030e-3
0.377, 1.041e-3
0.378, 1.052e-3
0.379, 1.064e-3
0.380, 1.077e-3
0.381, 1.088e-3
0.382, 1.098e-3
0.383, 1.115e-3
0.384, 1.127e-3
0.385, 1.141e-3
0.386, 1.150e-3
0.387, 1.164e-3
0.388, 1.177e-3
0.389, 1.189e-3
0.390, 1.200e-3
0.391, 1.216e-3
0.392, 1.230e-3
0.393, 1.247e-3
0.394, 1.260e-3
0.395, 1.275e-3
0.396, 1.290e-3
0.397, 1.303e-3
0.398, 1.320e-3
0.399, 1.331e-3
0.400, 1.346e-3
0.401, 1.360e-3
0.402, 1.377e-3
0.403, 1.394e-3
0.404, 1.408e-3
0.405, 1.422e-3
0.406, 1.440e-3
0.407, 1.454e-3
0.408, 1.471e-3
0.409, 1.488e-3
0.410, 1.509e-3
0.411, 1.526e-3
0.412, 1.541e-3
0.413, 1.559e-3
0.414, 1.576e-3
0.415, 1.595e-3
0.416, 1.611e-3
0.417, 1.631e-3
0.418, 1.648e-3
0.419, 1.665e-3
0.420, 1.682e-3
0.421, 1.699e-3
0.422, 1.720e-3
0.423, 1.739e-3
0.424, 1.755e-3
0.425, 1.778e-3
0.426, 1.794e-3
0.427, 1.815e-3
0.428, 1.837e-3
0.429, 1.855e-3
0.430, 1.873e-3
0.431, 1.893e-3
0.432, 1.914e-3
0.433, 1.936e-3
0.434, 1.954e-3
0.435, 1.977e-3
0.436, 1.999e-3
0.437, 2.021e-3
0.438, 2.046e-3
0.439, 2.068e-3
0.440, 2.085e-3
0.441, 2.106e-3
0.442, 2.127e-3
0.443, 2.151e-3
0.444, 2.175e-3
0.445, 2.195e-3
0.446, 2.217e-3
0.447, 2.243e-3
0.448, 2.267e-3
0.449, 2.290e-3
0.450, 2.312e-3
0.451, 2.338e-3
0.452, 2.362e-3
0.453, 2.386e-3
0.454, 2.412e-3
0.455, 2.438e-3
0.456, 2.462e-3
0.457, 2.488e-3
0.458, 2.515e-3
0.459, 2.545e-3
0.460, 2.571e-3
0.461, 2.598e-3
0.462, 2.625e-3
0.463, 2.651e-3
0.464, 2.678e-3
0.465, 2.707e-3
0.466, 2.733e-3
0.467, 2.763e-3
0.468, 2.791e-3
0.469, 2.821e-3
0.470, 2.850e-3
0.471, 2.881e-3
0.472, 2.914e-3
0.473, 2.946e-3
0.474, 2.976e-3
0.475, 3.007e-3
0.476, 3.041e-3
0.477, 3.072e-3
0.478, 3.105e-3
0.479, 3.137e-3
0.480, 3.172e-3
0.481, 3.210e-3
0.482, 3.242e-3
0.483, 3.274e-3
0.484, 3.314e-3
0.485, 3.351e-3
0.486, 3.389e-3
0.487, 3.427e-3
0.488, 3.467e-3
0.489, 3.508e-3
0.490, 3.551e-3
0.491, 3.599e-3
0.492, 3.642e-3
0.493, 3.684e-3
0.494, 3.727e-3
0.495, 3.770e-3
0.496, 3.813e-3
0.497, 3.857e-3
0.498, 3.906e-3
0.499, 3.952e-3
0.500, 4.001e-3
0.501, 4.049e-3
0.502, 4.100e-3
0.503, 4.152e-3
0.504, 4.204e-3
0.505, 4.255e-3
0.506, 4.308e-3
0.507, 4.361e-3
0.508, 4.418e-3
0.509, 4.474e-3
0.510, 4.535e-3
0.511, 4.590e-3
0.512, 4.651e-3
0.513, 4.713e-3
0.514, 4.774e-3
0.515, 4.835e-3
0.516, 4.897e-3
0.517, 4.961e-3
0.518, 5.028e-3
0.519, 5.096e-3
0.520, 5.163e-3
0.521, 5.227e-3
0.522, 5.297e-3
0.523, 5.366e-3
0.524, 5.440e-3
0.525, 5.512e-3
0.526, 5.580e-3
0.527, 5.653e-3
0.528, 5.728e-3
0.529, 5.805e-3
0.530, 5.880e-3
0.531, 5.964e-3
0.532, 6.044e-3
0.533, 6.121e-3
0.534, 6.201e-3
0.535, 6.281e-3
0.536, 6.363e-3
0.537, 6.447e-3
0.538, 6.530e-3
0.539, 6.615e-3
0.540, 6.697e-3
0.541, 6.779e-3
0.542, 6.863e-3
0.543, 6.950e-3
0.544, 7.036e-3
0.545, 7.122e-3
0.546, 7.207e-3
0.547, 7.290e-3
0.548, 7.378e-3
0.549, 7.467e-3
0.550, 7.556e-3
0.551, 7.641e-3
0.552, 7.727e-3
0.553, 7.813e-3
0.554, 7.904e-3
0.555, 7.992e-3
0.556, 8.080e-3
0.557, 8.170e-3
0.558, 8.257e-3
0.559, 8.346e-3
0.560, 8.436e-3
0.561, 8.525e-3
0.562, 8.616e-3
0.563, 8.709e-3
0.564, 8.799e-3
0.565, 8.889e-3
0.566, 8.985e-3
0.567, 9.081e-3
0.568, 9.186e-3
0.569, 9.288e-3
0.570, 9.388e-3
0.571, 9.490e-3
0.572, 9.597e-3
0.573, 9.701e-3
0.574, 9.805e-3
0.575, 9.915e-3
0.576, 1.002e-2
0.577, 1.012e-2
0.578, 1.023e-2
0.579, 1.034e-2
0.580, 1.045e-2
0.581, 1.055e-2
0.582, 1.066e-2
0.583, 1.077e-2
0.584, 1.088e-2
0.585, 1.099e-2
0.586, 1.109e-2
0.587, 1.120e-2
0.588, 1.131e-2
0.589, 1.143e-2
0.590, 1.155e-2
0.591, 1.167e-2
0.592, 1.179e-2
0.593, 1.192e-2
0.594, 1.204e-2
0.595, 1.217e-2
0.596, 1.231e-2
0.597, 1.244e-2
0.598, 1.258e-2
0.599, 1.271e-2
0.600, 1.285e-2
0.601, 1.299e-2
0.602, 1.314e-2
0.603, 1.329e-2
0.604, 1.343e-2
0.605, 1.358e-2
0.606, 1.374e-2
0.607, 1.391e-2
0.608, 1.407e-2
0.609, 1.424e-2
0.610, 1.442e-2
0.611, 1.459e-2
0.612, 1.477e-2
0.613, 1.495e-2
0.614, 1.514e-2
0.615, 1.533e-2
0.616, 1.551e-2
0.617, 1.570e-2
0.618, 1.589e-2
0.619, 1.608e-2
0.620, 1.628e-2
0.621, 1.648e-2
0.622, 1.667e-2
0.623, 1.687e-2
0.624, 1.708e-2
0.625, 1.728e-2
0.626, 1.748e-2
0.627, 1.769e-2
0.628, 1.790e-2
0.629, 1.811e-2
0.630, 1.833e-2
0.631, 1.854e-2
0.632, 1.876e-2
0.633, 1.898e-2
0.634, 1.921e-2
0.635, 1.943e-2
0.636, 1.965e-2
0.637, 1.988e-2
0.638, 2.010e-2
0.639, 2.033e-2
0.640, 2.057e-2
0.641, 2.080e-2
0.642, 2.102e-2
0.643, 2.126e-2
0.644, 2.150e-2
0.645, 2.176e-2
0.646, 2.201e-2
0.647, 2.225e-2
0.648, 2.249e-2
0.649, 2.273e-2
0.650, 2.297e-2
0.651, 2.322e-2
0.652, 2.346e-2
0.653, 2.370e-2
0.654, 2.395e-2
0.655, 2.419e-2
0.656, 2.444e-2
0.657, 2.468e-2
0.658, 2.492e-2
0.659, 2.517e-2
0.660, 2.542e-2
0.661, 2.567e-2
0.662, 2.592e-2
0.663, 2.616e-2
0.664, 2.642e-2
0.665, 2.667e-2
0.666, 2.692e-2
0.667, 2.719e-2
0.668, 2.744e-2
0.669, 2.770e-2
0.670, 2.796e-2
0.671, 2.822e-2
0.672, 2.848e-2
0.673, 2.874e-2
0.674, 2.900e-2
0.675, 2.926e-2
0.676, 2.953e-2
0.677, 2.980e-2
0.678, 3.007e-2
0.679, 3.033e-2
0.680, 3.060e-2
0.681, 3.087e-2
0.682, 3.114e-2
0.683, 3.142e-2
0.684, 3.170e-2
0.685, 3.197e-2
0.686, 3.225e-2
0.687, 3.253e-2
0.688, 3.281e-2
0.689, 3.308e-2
0.690, 3.338e-2
0.691, 3.368e-2
0.692, 3.398e-2
0.693, 3.427e-2
0.694, 3.455e-2
0.695, 3.484e-2
0.696, 3.515e-2
0.697, 3.545e-2
0.698, 3.573e-2
0.699, 3.603e-2
0.700, 3.633e-2
0.701, 3.665e-2
0.702, 3.696e-2
0.703, 3.726e-2
0.704, 3.756e-2
0.705, 3.786e-2
0.706, 3.817e-2
0.707, 3.847e-2
0.708, 3.877e-2
0.709, 3.908e-2
0.710, 3.938e-2
0.711, 3.969e-2
0.712, 4.001e-2
0.713, 4.031e-2
0.714, 4.063e-2
0.715, 4.096e-2
0.716, 4.127e-2
0.717, 4.158e-2
0.718, 4.190e-2
0.719, 4.220e-2
0.720, 4.252e-2
0.721, 4.284e-2
0.722, 4.316e-2
0.723, 4.349e-2
0.724, 4.384e-2
0.725, 4.420e-2
0.726, 4.453e-2
0.727, 4.484e-2
0.728, 4.516e-2
0.729, 4.549e-2
0.730, 4.581e-2
0.731, 4.614e-2
0.732, 4.647e-2
0.733, 4.680e-2
0.734, 4.714e-2
0.735, 4.748e-2
0.736, 4.781e-2
0.737, 4.812e-2
0.738, 4.844e-2
0.739, 4.879e-2
0.740, 4.914e-2
0.741, 4.948e-2
0.742, 4.982e-2
0.743, 5.016e-2
0.744, 5.051e-2
0.745, 5.088e-2
0.746, 5.122e-2
0.747, 5.157e-2
0.748, 5.191e-2
0.749, 5.225e-2
0.750, 5.260e-2
0.751, 5.295e-2
0.752, 5.329e-2
0.753, 5.362e-2
0.754, 5.397e-2
0.755, 5.432e-2
0.756, 5.467e-2
0.757, 5.504e-2
0.758, 5.541e-2
0.759, 5.576e-2
0.760, 5.613e-2
0.761, 5.650e-2
0.762, 5.685e-2
0.763, 5.722e-2
0.764, 5.759e-2
0.765, 5.793e-2
0.766, 5.829e-2
0.767, 5.865e-2
0.768, 5.904e-2
0.769, 5.939e-2
0.770, 5.972e-2
0.771, 6.006e-2
0.772, 6.048e-2
0.773, 6.089e-2
0.774, 6.128e-2
0.775, 6.165e-2
0.776, 6.201e-2
0.777, 6.238e-2
0.778, 6.276e-2
0.779, 6.312e-2
0.780, 6.347e-2
0.781, 6.386e-2
0.782, 6.428e-2
0.783, 6.465e-2
0.784, 6.500e-2
0.785, 6.537e-2
0.786, 6.574e-2
0.787, 6.612e-2
0.788, 6.651e-2
0.789, 6.695e-2
0.790, 6.737e-2
0.791, 6.773e-2
0.792, 6.810e-2
0.793, 6.851e-2
0.794, 6.893e-2
0.795, 6.932e-2
0.796, 6.969e-2
0.797, 7.006e-2
0.798, 7.046e-2
0.799, 7.084e-2
